wavelength,absorbance
240.0023944,-0.013037729
240.0023944,-0.014541056
240.2921194,-0.013037729
240.2921194,-0.014541056
240.4852693,-0.008527748
240.4852693,-0.010031075
240.5818443,-0.008527748
240.5818443,-0.010031075
240.7749943,-0.007024421
241.1612942,-0.008527748
241.1612942,-0.010031075
241.2578692,-0.008527748
241.5475941,-0.001011114
241.5475941,-0.002514441
241.7407441,-0.004017768
241.837319,-0.004017768
242.223619,-0.002514441
242.3201939,-0.002514441
242.8996438,0.000492213
243.1893688,0.000492213
243.3825187,0.003498867
243.3825187,0.00199554
243.4790937,0.003498867
243.8653936,0.00199554
243.8653936,0.000492213
244.3482685,0.008008847
244.6379935,0.011015501
244.6379935,0.009512174
245.2174434,0.015525481
245.6037433,0.020035462
246.3763431,0.033565404
246.6660681,0.039578711
246.6660681,0.038075384
246.762643,0.038075384
247.6318179,0.056115306
247.6318179,0.05461198
247.8249678,0.060625287
247.9215428,0.060625287
247.9215428,0.05912196
248.1146928,0.063631941
248.1146928,0.062128614
248.2112677,0.063631941
248.2112677,0.062128614
248.4044177,0.068141921
248.5975677,0.069645248
248.6941426,0.071148575
248.6941426,0.069645248
248.9838676,0.077161882
249.2735925,0.078665209
249.2735925,0.077161882
249.4667425,0.086181844
249.7564674,0.092195151
249.7564674,0.090691824
249.8530424,0.092195151
250.0461924,0.096705132
250.5290673,0.110235073
250.6256423,0.1117384
250.6256423,0.110235073
250.9153672,0.117751708
251.1085172,0.126771669
251.1085172,0.125268342
251.3016671,0.132784976
251.3016671,0.131281649
251.5913921,0.141804937
251.8272425,0.152073529
251.9601329,0.159313725
252.1594684,0.165519608
252.358804,0.173794118
252.4252492,0.181034314
252.6910299,0.187240196
252.8903654,0.195514706
253.0232558,0.203789216
253.2225914,0.213098039
253.3554817,0.222406863
253.4883721,0.228612745
253.9091916,0.238017856
254.0057666,0.239521183
254.0057666,0.238017856
254.2954915,0.250044471
254.2954915,0.248541144
254.2954915,0.247037817
254.4886415,0.250044471
254.5852164,0.250044471
254.8749414,0.254554452
255.7441162,0.254554452
255.7441162,0.253051125
255.8406912,0.256057778
255.8406912,0.254554452
256.2269911,0.260567759
256.4201411,0.263574413
256.4201411,0.262071086
256.709866,0.271091047
256.709866,0.26958772
257.0099668,0.27722549
257.2093023,0.283431373
257.4086379,0.288602941
257.5415282,0.303083333
257.5415282,0.296877451
257.7408638,0.310323529
257.8737542,0.318598039
258.0730897,0.326872549
258.2724252,0.333078431
258.3388704,0.339284314
258.4717608,0.347558824
258.6046512,0.355833333
258.7375415,0.362039216
258.8704319,0.369279412
259.0276655,0.376323927
259.269103,0.384794118
259.4139655,0.388350542
259.5105404,0.388350542
259.6071154,0.388350542
259.9934153,0.388350542
260.3986711,0.379622549
260.5315615,0.372382353
260.6694402,0.364297312
260.6694402,0.362793985
260.8637874,0.353764706
260.9966777,0.345490196
261.1295681,0.33825
261.2624585,0.332044118
261.3953488,0.32170098
261.461794,0.315495098
261.5946844,0.305151961
261.7275748,0.297911765
261.7940199,0.290671569
261.9269103,0.282397059
262.0598007,0.274122549
262.192691,0.266882353
262.2591362,0.258607843
262.3920266,0.250333333
262.5249169,0.238955882
262.7242525,0.230681373
262.8571429,0.220338235
262.9900332,0.214132353
263.1229236,0.207926471
263.1229236,0.199651961
263.3222591,0.194480392
263.3222591,0.187240196
263.654485,0.178965686
263.8538206,0.168622549
263.986711,0.160348039
264.2524917,0.154142157
264.5182724,0.146901961
264.7255894,0.14030161
264.8221644,0.138798284
265.1118893,0.132784976
265.4016142,0.129778322
265.5947642,0.126771669
265.7879142,0.125268342
265.8844891,0.125268342
265.9810641,0.125268342
266.1742141,0.122261688
266.367364,0.120758361
266.753664,0.117751708
266.9468139,0.114745054
267.1399639,0.113241727
267.2365389,0.113241727
267.3331138,0.113241727
267.5262638,0.110235073
267.6228388,0.108731746
267.7194138,0.108731746
267.9125637,0.105725093
268.1057137,0.104221766
268.5885886,0.096705132
268.8783135,0.092195151
269.4577634,0.081671863
269.7474884,0.077161882
270.0372133,0.072651902
270.4235132,0.068141921
270.6166632,0.065135268
270.8098131,0.063631941
270.8098131,0.062128614
271.0995381,0.057618633
271.1961131,0.057618633
271.389263,0.056115306
271.582413,0.053108653
271.7755629,0.051605326
271.8721379,0.051605326
271.9687129,0.051605326
272.1618629,0.048598672
272.2584378,0.048598672
272.3550128,0.048598672
272.5481628,0.047095345
272.5481628,0.045592018
272.6447378,0.047095345
272.6447378,0.045592018
272.7413127,0.047095345
272.7413127,0.045592018
272.8378877,0.047095345
272.8378877,0.045592018
273.0310377,0.044088692
273.1276127,0.044088692
273.2241876,0.044088692
273.3207626,0.044088692
273.5139126,0.041082038
273.6104876,0.041082038
273.7070625,0.041082038
273.8036375,0.041082038
273.9002125,0.041082038
274.0933625,0.039578711
274.0933625,0.038075384
274.1899374,0.039578711
274.2865124,0.039578711
274.3830874,0.039578711
274.4796624,0.039578711
274.5762374,0.039578711
274.8659623,0.036572057
274.9625373,0.036572057
275.0591123,0.036572057
275.1556872,0.036572057
275.2522622,0.036572057
275.4454122,0.03506873
275.4454122,0.033565404
275.5419872,0.03506873
275.5419872,0.033565404
275.6385622,0.03506873
275.6385622,0.033565404
275.7351371,0.03506873
275.7351371,0.033565404
275.8317121,0.03506873
275.8317121,0.033565404
276.0248621,0.032062077
276.1214371,0.032062077
276.218012,0.032062077
276.314587,0.032062077
276.411162,0.032062077
276.507737,0.032062077
276.7008869,0.03055875
276.7008869,0.029055423
276.7974619,0.029055423
276.8940369,0.029055423
276.9906119,0.029055423
277.0871869,0.03055875
277.0871869,0.029055423
277.1837618,0.03055875
277.1837618,0.029055423
277.3769118,0.027552096
277.4734868,0.027552096
277.5700618,0.027552096
277.6666367,0.027552096
277.7632117,0.027552096
277.8597867,0.027552096
278.0529367,0.024545443
278.1495116,0.024545443
278.2460866,0.024545443
278.3426616,0.024545443
278.4392366,0.024545443
278.5358116,0.024545443
278.6323865,0.026048769
278.6323865,0.024545443
278.7289615,0.024545443
278.9221115,0.023042116
279.0186865,0.023042116
279.1152614,0.023042116
279.2118364,0.023042116
279.3084114,0.023042116
279.4049864,0.023042116
279.5015614,0.023042116
279.5981363,0.023042116
279.7912863,0.020035462
279.8878613,0.020035462
279.9844363,0.020035462
280.0810112,0.020035462
280.1775862,0.020035462
280.2741612,0.020035462
280.3707362,0.020035462
280.4673112,0.020035462
280.6604611,0.018532135
280.7570361,0.018532135
280.8536111,0.018532135
280.9501861,0.018532135
280.9501861,0.017028808
281.046761,0.018532135
281.046761,0.017028808
281.143336,0.018532135
281.143336,0.017028808
281.239911,0.018532135
281.239911,0.017028808
281.336486,0.018532135
281.336486,0.017028808
281.5296359,0.015525481
281.6262109,0.015525481
281.7227859,0.015525481
281.8193609,0.015525481
281.9159359,0.015525481
282.0125108,0.015525481
282.1090858,0.015525481
282.3022358,0.012518828
282.3988108,0.014022155
282.3988108,0.012518828
282.4953858,0.014022155
282.4953858,0.012518828
282.5919607,0.014022155
282.5919607,0.012518828
282.6885357,0.012518828
282.8816857,0.011015501
282.9782607,0.011015501
283.0748356,0.011015501
283.1714106,0.011015501
283.3645606,0.008008847
283.4611356,0.008008847
283.5577105,0.008008847
283.6542855,0.008008847
283.7508605,0.008008847
283.8474355,0.00650552
283.9440105,0.00650552
284.0405854,0.00650552
284.0405854,0.005002193
284.1371604,0.00650552
284.1371604,0.005002193
284.3303104,0.003498867
284.4268854,0.003498867
284.5234603,0.003498867
284.6200353,0.003498867
284.8131853,0.00199554
284.9097603,0.00199554
284.9097603,0.000492213
285.0063352,0.00199554
285.0063352,0.000492213
285.1029102,0.00199554
285.1029102,0.000492213
285.2960602,-0.001011114
285.3926352,-0.001011114
285.4892101,-0.001011114
285.5857851,-0.001011114
285.6823601,-0.001011114
285.8755101,-0.004017768
285.972085,-0.002514441
285.972085,-0.004017768
286.26181,-0.005521095
286.358385,-0.005521095
286.4549599,-0.005521095
286.4549599,-0.007024421
286.5515349,-0.005521095
286.6481099,-0.008527748
286.7446849,-0.008527748
286.8412599,-0.008527748
286.9378348,-0.008527748
287.0344098,-0.008527748
287.3241348,-0.010031075
287.3241348,-0.011534402
287.4207097,-0.010031075
287.4207097,-0.011534402
287.5172847,-0.010031075
287.5172847,-0.011534402
287.6138597,-0.011534402
287.8070097,-0.013037729
287.9035846,-0.013037729
288.0001596,-0.013037729
288.0967346,-0.013037729
288.3864595,-0.016044383
288.4830345,-0.016044383
288.5796095,-0.016044383
288.6761845,-0.014541056
288.6761845,-0.016044383
288.7727595,-0.014541056
288.7727595,-0.016044383
288.9659094,-0.017547709
289.0624844,-0.017547709
289.1590594,-0.017547709
289.2556344,-0.017547709
289.3522094,-0.017547709
289.4487843,-0.017547709
289.6419343,-0.020554363
289.7385093,-0.020554363
289.8350843,-0.020554363